#FORMAT      : EMSA/MAS Spectral Data File
#VERSION     : 1.0
#TITLE       : LiF_in_between_30kV after Richardson-Lucy deconvolution 9 iterations
#DATE        : 
#TIME        : 
#OWNER       : 
#NPOINTS     : 450
#NCOLUMNS    : 1
#XUNITS      : eV
#YUNITS      : 
#DATATYPE    : XY
#XPERCHAN    : 0.05257813
#OFFSET      : 53.422345500000006
#SIGNALTYPE  : EELS
#XLABEL      : 
#COMMENT     : File created by HyperSpy version 1.3
#SPECTRUM,    : Spectral Data Starts Here
53.4223, -3220.57
53.4749, -6140.77
53.5275, -10823.2
53.5801, -13919.6
53.6327, -14046.3
53.6852, -16463
53.7378, -13636
53.7904, -11085.6
53.843, -8995.59
53.8955, -7530.4
53.9481, -9168.22
54.0007, -10089.1
54.0533, -12114.6
54.1059, -10353
54.1584, -9586.69
54.211, -9450.77
54.2636, -10200.5
54.3162, -7364.61
54.3688, -11394
54.4213, -10327.3
54.4739, -11857.4
54.5265, -11386.5
54.5791, -8541.03
54.6316, -7774.09
54.6842, -8049.77
54.7368, -12562.7
54.7894, -10455.5
54.842, -9803.18
54.8945, -11694.7
54.9471, -11649.8
54.9997, -9559.08
55.0523, -6911.63
55.1048, -7646.99
55.1574, -9006.24
55.21, -9853.15
55.2626, -10464.2
55.3152, -14561.8
55.3677, -10556.2
55.4203, -7221.2
55.4729, -8736.05
55.5255, -10706.8
55.578, -9733.95
55.6306, -7083.75
55.6832, -4639.14
55.7358, -5838.53
55.7884, -5611.67
55.8409, -4269.46
55.8935, -5466.53
55.9461, -6318.94
55.9987, -3982.98
56.0513, -574.026
56.1038, 129.514
56.1564, 314.576
56.209, -713.358
56.2616, 1016.12
56.3141, 1414.26
56.3667, 5569.83
56.4193, 3576.23
56.4719, 3061.75
56.5245, 5315.36
56.577, 8333.07
56.6296, 13122.3
56.6822, 9927.81
56.7348, 9233.12
56.7873, 8005.38
56.8399, 7110.35
56.8925, 4890.08
56.9451, 4041.25
56.9977, 6132.49
57.0502, 10558.6
57.1028, 13808.1
57.1554, 11082.7
57.208, 7758.65
57.2605, 7351.33
57.3131, 9251.83
57.3657, 7010.94
57.4183, 7059.99
57.4709, 4267.05
57.5234, 5136.89
57.576, 5481.15
57.6286, 7071.56
57.6812, 11949.1
57.7338, 12078.7
57.7863, 10246
57.8389, 7884.98
57.8915, 5613.23
57.9441, 2905.86
57.9966, 5381.94
58.0492, 3929.06
58.1018, 3750.61
58.1544, 1544.26
58.207, 3970.05
58.2595, 7270.56
58.3121, 6039.89
58.3647, 5420.11
58.4173, 4151.69
58.4698, 8802.8
58.5224, 11131.2
58.575, 7513.29
58.6276, 7635.34
58.6802, 7259.54
58.7327, 5232.52
58.7853, 5520.52
58.8379, 5564.77
58.8905, 4449.35
58.943, 3055.12
58.9956, 6722.8
59.0482, 11926.2
59.1008, 15115.7
59.1534, 11583.5
59.2059, 13701.4
59.2585, 13780.4
59.3111, 11127.6
59.3637, 12089.3
59.4163, 12791.5
59.4688, 15267
59.5214, 15702
59.574, 17219.5
59.6266, 16541.6
59.6791, 15068.2
59.7317, 13810.5
59.7843, 13611.3
59.8369, 15710.7
59.8895, 16844.4
59.942, 12563.9
59.9946, 12539.9
60.0472, 12663.6
60.0998, 10391.3
60.1523, 12955
60.2049, 15555
60.2575, 15463.2
60.3101, 21968.3
60.3627, 18865.5
60.4152, 16874.4
60.4678, 14642.2
60.5204, 12610.5
60.573, 11491.8
60.6255, 15721.3
60.6781, 19442.8
60.7307, 17953
60.7833, 17497
60.8359, 17748.9
60.8884, 18228.2
60.941, 18102.1
60.9936, 17387.2
61.0462, 20092.4
61.0988, 19246.6
61.1513, 17310.6
61.2039, 14982.5
61.2565, 12507.9
61.3091, 17295.5
61.3616, 18540.5
61.4142, 20200.1
61.4668, 19583.3
61.5194, 23952.9
61.572, 24466.2
61.6245, 25038
61.6771, 20261.3
61.7297, 21943.6
61.7823, 24382.8
61.8348, 27851.7
61.8874, 31003
61.94, 26194.1
61.9926, 23824.1
62.0452, 25099.9
62.0977, 26395.1
62.1503, 25166.3
62.2029, 25731
62.2555, 26962.4
62.308, 31084.5
62.3606, 33933
62.4132, 33462
62.4658, 32933.7
62.5184, 32131.9
62.5709, 30760.1
62.6235, 30900.2
62.6761, 32249.8
62.7287, 35117.6
62.7813, 38841.6
62.8338, 37896.6
62.8864, 41623.7
62.939, 43087.5
62.9916, 51673.7
63.0441, 53184.1
63.0967, 47147.8
63.1493, 49515.4
63.2019, 52744.9
63.2545, 49597.9
63.307, 47694.8
63.3596, 49608.5
63.4122, 47147.2
63.4648, 48065.4
63.5173, 45859.7
63.5699, 42000.3
63.6225, 42555.5
63.6751, 41304.8
63.7277, 40007.8
63.7802, 37303.4
63.8328, 39489.1
63.8854, 41474.2
63.938, 43087.9
63.9905, 43510.8
64.0431, 40152.9
64.0957, 35243.9
64.1483, 36930.1
64.2009, 37476.2
64.2534, 40445
64.306, 39577.6
64.3586, 38840.1
64.4112, 36877.5
64.4638, 36099.2
64.5163, 36161.7
64.5689, 39334.4
64.6215, 39441.3
64.6741, 40375.9
64.7266, 39546.9
64.7792, 33866.2
64.8318, 29450.8
64.8844, 29112.1
64.937, 30044.7
64.9895, 32255.4
65.0421, 36506.9
65.0947, 40957.8
65.1473, 39972.7
65.1998, 33303.5
65.2524, 32918.3
65.305, 33690.5
65.3576, 37589.9
65.4102, 37290.5
65.4627, 36918
65.5153, 36953.2
65.5679, 37799.3
65.6205, 35817.4
65.673, 34096.1
65.7256, 31554.4
65.7782, 32783.7
65.8308, 34965.2
65.8834, 35218.4
65.9359, 36404.8
65.9885, 34245.4
66.0411, 33387.4
66.0937, 35868.5
66.1463, 38054.2
66.1988, 37251.5
66.2514, 35497.4
66.304, 37325.7
66.3566, 37642.1
66.4091, 34312.6
66.4617, 31692
66.5143, 32947
66.5669, 32569.9
66.6195, 32948.8
66.672, 30717.8
66.7246, 31942.4
66.7772, 33084.1
66.8298, 38616.5
66.8823, 38353.2
66.9349, 33037.7
66.9875, 34701.3
67.0401, 37115.6
67.0927, 34063.6
67.1452, 32619.9
67.1978, 32497.8
67.2504, 32373.8
67.303, 32320.1
67.3555, 30117.8
67.4081, 31649
67.4607, 32979.2
67.5133, 37434.2
67.5659, 35263.4
67.6184, 34385.2
67.671, 34751.1
67.7236, 32723.8
67.7762, 31867.8
67.8288, 29561.6
67.8813, 31049.2
67.9339, 31463.4
67.9865, 31937.9
68.0391, 32613.8
68.0916, 33711.8
68.1442, 31243.4
68.1968, 33588
68.2494, 33784.9
68.302, 33051.1
68.3545, 30071.4
68.4071, 27706.2
68.4597, 27306.3
68.5123, 27939.2
68.5648, 30317.6
68.6174, 29776.6
68.67, 30897.3
68.7226, 30744.8
68.7752, 28739.4
68.8277, 26827.6
68.8803, 25521.4
68.9329, 27269.1
68.9855, 27261.3
69.0381, 28268.6
69.0906, 28351.8
69.1432, 27400.1
69.1958, 29477.8
69.2484, 29761.1
69.3009, 29294.1
69.3535, 27873.4
69.4061, 30359.1
69.4587, 31024.2
69.5113, 30914
69.5638, 29639.5
69.6164, 29471.4
69.669, 27382.1
69.7216, 26857
69.7741, 25432.6
69.8267, 27368.7
69.8793, 27141.6
69.9319, 25426.2
69.9845, 26309.2
70.037, 28625.3
70.0896, 27763.3
70.1422, 27494.2
70.1948, 27824.2
70.2473, 25710.1
70.2999, 25232.2
70.3525, 23279.7
70.4051, 26387.6
70.4577, 26242
70.5102, 25473
70.5628, 25280.5
70.6154, 25815.5
70.668, 25798.5
70.7206, 24919.9
70.7731, 25797.2
70.8257, 22246.2
70.8783, 20786
70.9309, 18937.3
70.9834, 19232.3
71.036, 19694
71.0886, 21253.3
71.1412, 20135.9
71.1938, 21501.5
71.2463, 20982
71.2989, 20982.4
71.3515, 23053
71.4041, 23121.9
71.4566, 21406.9
71.5092, 20040.8
71.5618, 19509
71.6144, 18709
71.667, 18898
71.7195, 19088
71.7721, 17774.3
71.8247, 16697.7
71.8773, 16297.6
71.9298, 16291.3
71.9824, 15688.3
72.035, 14550.6
72.0876, 14561.9
72.1402, 14884.7
72.1927, 14396.4
72.2453, 15250.2
72.2979, 15472.3
72.3505, 14744.7
72.4031, 14431.1
72.4556, 13678.2
72.5082, 13636.1
72.5608, 13873.3
72.6134, 12534
72.6659, 12780.5
72.7185, 11886.9
72.7711, 11825.6
72.8237, 10873.8
72.8763, 11292.6
72.9288, 11224.3
72.9814, 11689.3
73.034, 11375.9
73.0866, 11465.5
73.1391, 11459.8
73.1917, 10950.3
73.2443, 12454
73.2969, 12517
73.3495, 12169.5
73.402, 11768.1
73.4546, 10660.1
73.5072, 11149.4
73.5598, 9673.87
73.6123, 8800
73.6649, 8686.94
73.7175, 8978.95
73.7701, 8529.05
73.8227, 8962.67
73.8752, 8301.37
73.9278, 7353.62
73.9804, 7984.22
74.033, 8388.88
74.0856, 8333.8
74.1381, 8205.42
74.1907, 7922.47
74.2433, 8334.33
74.2959, 8908.51
74.3484, 8756.06
74.401, 8335.39
74.4536, 8025.73
74.5062, 7818.65
74.5588, 8857.55
74.6113, 8635.66
74.6639, 8475.43
74.7165, 8301.9
74.7691, 8282.18
74.8216, 8032.93
74.8742, 7954.58
74.9268, 7592.18
74.9794, 7556.3
75.032, 7073.99
75.0845, 7335.05
75.1371, 8081.44
75.1897, 8343.93
75.2423, 8792.65
75.2948, 8724.4
75.3474, 8200.03
75.4, 8352.48
75.4526, 7087.72
75.5052, 6502.96
75.5577, 5899.08
75.6103, 6441.48
75.6629, 6146.9
75.7155, 6742.9
75.7681, 6439.14
75.8206, 6811.75
75.8732, 6783.4
75.9258, 7307.53
75.9784, 7377.38
76.0309, 7202.47
76.0835, 7177.33
76.1361, 7173.59
76.1887, 7094.76
76.2413, 7362.77
76.2938, 7571.44
76.3464, 7483.97
76.399, 7398.58
76.4516, 6997.44
76.5041, 6183.11
76.5567, 6391.74
76.6093, 7011.86
76.6619, 8215.92
76.7145, 8075.47
76.767, 7721.59
76.8196, 7383.47
76.8722, 6579.5
76.9248, 3841.19
76.9773, 1310.91
77.0299, 203.893
#ENDOFDATA   : End Of Data and File
